wavelength,response
6.15115000,0.00007100
6.15846000,0.00012400
6.16578000,0.00018800
6.17312000,0.00020600
6.18048000,0.00018000
6.18786000,0.00014700
6.19525000,0.00009600
6.20266000,0.00005000
6.21009000,0.00008300
6.21753000,0.00012300
6.22500000,0.00014700
6.23248000,0.00019800
6.23998000,0.00022800
6.24750000,0.00023100
6.25503000,0.00023200
6.26259000,0.00028700
6.27016000,0.00047100
6.27775000,0.00076800
6.28536000,0.00118900
6.29299000,0.00201600
6.30064000,0.00336200
6.30830000,0.00523900
6.31598000,0.00790600
6.32369000,0.01174000
6.33141000,0.01626000
6.33915000,0.02164000
6.34691000,0.02857000
6.35469000,0.03616000
6.36248000,0.04395000
6.37030000,0.05329000
6.37813000,0.06244000
6.38599000,0.07309000
6.39386000,0.08594000
6.40176000,0.10040000
6.40967000,0.11290000
6.41760000,0.12550000
6.42556000,0.13780000
6.43353000,0.14850000
6.44152000,0.15890000
6.44953000,0.16710000
6.45756000,0.17400000
6.46561000,0.17930000
6.47369000,0.18480000
6.48178000,0.18980000
6.48989000,0.19710000
6.49802000,0.20490000
6.50618000,0.21170000
6.51435000,0.21700000
6.52254000,0.21990000
6.53076000,0.22150000
6.53900000,0.22400000
6.54725000,0.22720000
6.55553000,0.22950000
6.56383000,0.23130000
6.57215000,0.23260000
6.58049000,0.23280000
6.58885000,0.23290000
6.59723000,0.23350000
6.60563000,0.23310000
6.61406000,0.23250000
6.62251000,0.23010000
6.63098000,0.22800000
6.63947000,0.22610000
6.64798000,0.22370000
6.65651000,0.22260000
6.66507000,0.22160000
6.67365000,0.22200000
6.68225000,0.22360000
6.69087000,0.22620000
6.69951000,0.22860000
6.70818000,0.23100000
6.71687000,0.23300000
6.72558000,0.23470000
6.73432000,0.23600000
6.74307000,0.23720000
6.75185000,0.23780000
6.76066000,0.23930000
6.76948000,0.24060000
6.77833000,0.24180000
6.78720000,0.24290000
6.79610000,0.24400000
6.80502000,0.24480000
6.81396000,0.24610000
6.82293000,0.24710000
6.83191000,0.24810000
6.84093000,0.24850000
6.84996000,0.24910000
6.85903000,0.24940000
6.86811000,0.24920000
6.87722000,0.24880000
6.88635000,0.24830000
6.89551000,0.24770000
6.90469000,0.24730000
6.91390000,0.24760000
6.92313000,0.24850000
6.93238000,0.24920000
6.94166000,0.24910000
6.95097000,0.24880000
6.96030000,0.24790000
6.96965000,0.24690000
6.97904000,0.24500000
6.98844000,0.24340000
6.99787000,0.24240000
7.00733000,0.24180000
7.01681000,0.24180000
7.02632000,0.24140000
7.03585000,0.24100000
7.04541000,0.24090000
7.05500000,0.24030000
7.06461000,0.23960000
7.07425000,0.23920000
7.08391000,0.23960000
7.09360000,0.24030000
7.10332000,0.24110000
7.11306000,0.24180000
7.12283000,0.24220000
7.13263000,0.24210000
7.14246000,0.24170000
7.15231000,0.24130000
7.16219000,0.24070000
7.17209000,0.24080000
7.18203000,0.24180000
7.19199000,0.24330000
7.20198000,0.24470000
7.21199000,0.24600000
7.22204000,0.24770000
7.23211000,0.24930000
7.24221000,0.24970000
7.25234000,0.24940000
7.26250000,0.24830000
7.27268000,0.24620000
7.28290000,0.24380000
7.29314000,0.24270000
7.30341000,0.24200000
7.31371000,0.24280000
7.32404000,0.24420000
7.33440000,0.24680000
7.34479000,0.24950000
7.35521000,0.25260000
7.36566000,0.25430000
7.37614000,0.25560000
7.38664000,0.25630000
7.39718000,0.25560000
7.40775000,0.25470000
7.41835000,0.25370000
7.42897000,0.25300000
7.43963000,0.25390000
7.45032000,0.25590000
7.46104000,0.25910000
7.47179000,0.26290000
7.48257000,0.26650000
7.49339000,0.27000000
7.50423000,0.27280000
7.51511000,0.27550000
7.52601000,0.27780000
7.53695000,0.27960000
7.54792000,0.28090000
7.55893000,0.28220000
7.56996000,0.28300000
7.58103000,0.28310000
7.59213000,0.28260000
7.60326000,0.28160000
7.61442000,0.28130000
7.62562000,0.28140000
7.63685000,0.28210000
7.64812000,0.28370000
7.65941000,0.28570000
7.67074000,0.28720000
7.68211000,0.28810000
7.69351000,0.28830000
7.70494000,0.28720000
7.71640000,0.28660000
7.72790000,0.28570000
7.73944000,0.28590000
7.75101000,0.28670000
7.76261000,0.28790000
7.77425000,0.28910000
7.78592000,0.29060000
7.79763000,0.29230000
7.80937000,0.29390000
7.82115000,0.29530000
7.83297000,0.29710000
7.84482000,0.29900000
7.85670000,0.30070000
7.86862000,0.30160000
7.88058000,0.30220000
7.89258000,0.30140000
7.90461000,0.30020000
7.91668000,0.29800000
7.92878000,0.29610000
7.94092000,0.29520000
7.95310000,0.29480000
7.96532000,0.29570000
7.97757000,0.29670000
7.98987000,0.29770000
8.00220000,0.29900000
8.01456000,0.30020000
8.02697000,0.30130000
8.03942000,0.30240000
8.05190000,0.30320000
8.06442000,0.30500000
8.07698000,0.30610000
8.08958000,0.30800000
8.10222000,0.30890000
8.11490000,0.30900000
8.12762000,0.30910000
8.14038000,0.30860000
8.15318000,0.30810000
8.16602000,0.30790000
8.17890000,0.30850000
8.19182000,0.30950000
8.20478000,0.31130000
8.21779000,0.31270000
8.23083000,0.31370000
8.24392000,0.31370000
8.25704000,0.31370000
8.27021000,0.31340000
8.28342000,0.31280000
8.29668000,0.31250000
8.30997000,0.31280000
8.32331000,0.31250000
8.33669000,0.31190000
8.35012000,0.31080000
8.36359000,0.30990000
8.37710000,0.30940000
8.39065000,0.30950000
8.40425000,0.31010000
8.41789000,0.31170000
8.43158000,0.31300000
8.44531000,0.31360000
8.45909000,0.31400000
8.47291000,0.31370000
8.48678000,0.31240000
8.50069000,0.31130000
8.51465000,0.31090000
8.52866000,0.31120000
8.54271000,0.31120000
8.55680000,0.31170000
8.57095000,0.31260000
8.58514000,0.31220000
8.59938000,0.31210000
8.61366000,0.31020000
8.62799000,0.30850000
8.64237000,0.30600000
8.65680000,0.30260000
8.67128000,0.29810000
8.68580000,0.29430000
8.70037000,0.29090000
8.71500000,0.28920000
8.72967000,0.28980000
8.74439000,0.29160000
8.75916000,0.29380000
8.77398000,0.29580000
8.78885000,0.29730000
8.80377000,0.29840000
8.81875000,0.29810000
8.83377000,0.29650000
8.84885000,0.29390000
8.86397000,0.29140000
8.87915000,0.28890000
8.89438000,0.28750000
8.90966000,0.28570000
8.92500000,0.28410000
8.94038000,0.28270000
8.95583000,0.28060000
8.97132000,0.27810000
8.98687000,0.27560000
9.00247000,0.27370000
9.01813000,0.27130000
9.03384000,0.26860000
9.04960000,0.26590000
9.06543000,0.26410000
9.08130000,0.26160000
9.09723000,0.25780000
9.11322000,0.25360000
9.12927000,0.24970000
9.14537000,0.24290000
9.16152000,0.23450000
9.17774000,0.22420000
9.19401000,0.21410000
9.21034000,0.20150000
9.22673000,0.18980000
9.24318000,0.17740000
9.25968000,0.16530000
9.27625000,0.15340000
9.29287000,0.14370000
9.30956000,0.13340000
9.32630000,0.12350000
9.34310000,0.11320000
9.35997000,0.10220000
9.37690000,0.09073000
9.39388000,0.07915000
9.41093000,0.06783000
9.42804000,0.05607000
9.44522000,0.04578000
9.46245000,0.03604000
9.47975000,0.02739000
9.49711000,0.02015000
9.51454000,0.01445000
9.53203000,0.01021000
9.54958000,0.00723400
9.56720000,0.00491000
9.58489000,0.00329100
9.60264000,0.00230000
9.62045000,0.00161600
9.63833000,0.00114400
9.65628000,0.00081800
9.67430000,0.00051000
9.69238000,0.00027900
9.71053000,0.00016600
9.72875000,0.00011800
9.74704000,0.00009000
9.76539000,0.00011500
9.78382000,0.00013400
9.80231000,0.00006600
9.82088000,0.00004800
9.83951000,0.00009500
9.85822000,0.00010200
9.87700000,0.00016400
9.89585000,0.00029900
9.91477000,0.00033400
9.93376000,0.00032500
9.95283000,0.00032000
9.97197000,0.00027600
9.99118000,0.00029100
10.01050000,0.00027400
10.02980000,0.00016100
10.04930000,0.00015700
10.06880000,0.00020800
10.08840000,0.00018800
10.10800000,0.00014500
10.12780000,0.00016000
10.14760000,0.00023300
10.16750000,0.00028900
10.18750000,0.00026400
10.20750000,0.00018200
10.22770000,0.00008800
10.24790000,0.00004700
10.26820000,0.00011400
10.28850000,0.00021300
10.30900000,0.00024500
10.32950000,0.00021400
10.35010000,0.00019600
10.37080000,0.00020200
10.39160000,0.00023000
10.41250000,0.00027300
10.43340000,0.00027100
10.45450000,0.00025900
10.47560000,0.00025200
10.49680000,0.00019000
